#WAVENUMBER	 TRANSMITTANCE
#cm^(-1)	 %
#DECIMALSYMBOL	 .
299.9089	 127.0863
300.3910	 88.7124
300.8732	 75.9329
301.3554	 122.1498
301.8375	 150.0000
302.3197	 150.0000
302.8019	 144.7564
303.2840	 -1.0000
303.7662	 -1.0000
304.2484	 -1.0000
304.7305	 4.8039
305.2127	 56.3959
305.6949	 75.9285
306.1770	 -1.0000
306.6592	 150.0000
307.1414	 150.0000
307.6236	 142.5997
308.1057	 36.2283
308.5879	 13.8091
309.0701	 -1.0000
309.5522	 -1.0000
310.0344	 38.7071
310.5166	 89.7337
310.9987	 41.0291
311.4809	 39.8872
311.9631	 77.7528
312.4452	 76.8070
312.9274	 90.1178
313.4096	 150.0000
313.8917	 150.0000
314.3739	 150.0000
314.8561	 55.9911
315.3383	 106.5583
315.8204	 108.3293
316.3026	 -1.0000
316.7848	 3.8915
317.2669	 129.4441
317.7491	 150.0000
318.2313	 150.0000
318.7134	 137.0377
319.1956	 27.9593
319.6778	 -1.0000
320.1599	 -1.0000
320.6421	 70.3568
321.1243	 150.0000
321.6064	 150.0000
322.0886	 -1.0000
322.5708	 150.0000
323.0529	 150.0000
323.5351	 150.0000
324.0173	 119.7045
324.4995	 150.0000
324.9816	 -1.0000
325.4638	 53.9230
325.9460	 -1.0000
326.4281	 18.6007
326.9103	 66.3202
327.3925	 -0.8399
327.8746	 16.1263
328.3568	 101.7214
328.8390	 137.8593
329.3211	 89.1460
329.8033	 150.0000
330.2855	 150.0000
330.7676	 29.6654
331.2498	 57.5488
331.7320	 72.7260
332.2142	 53.3063
332.6963	 38.2667
333.1785	 65.6451
333.6607	 101.0591
334.1428	 87.8414
334.6250	 17.5322
335.1072	 -1.0000
335.5893	 -1.0000
336.0715	 -1.0000
336.5537	 -1.0000
337.0358	 -1.0000
337.5180	 101.9771
338.0002	 149.5917
338.4823	 13.2861
338.9645	 -1.0000
339.4467	 93.5683
339.9288	 85.2227
340.4110	 68.1647
340.8932	 105.0607
341.3754	 150.0000
341.8575	 64.9369
342.3397	 -1.0000
342.8219	 150.0000
343.3040	 78.0519
343.7862	 -1.0000
344.2684	 -1.0000
344.7505	 150.0000
345.2327	 150.0000
345.7149	 150.0000
346.1970	 93.0794
346.6792	 -1.0000
347.1614	 -1.0000
347.6435	 150.0000
348.1257	 147.0771
348.6079	 -1.0000
349.0901	 -1.0000
349.5722	 -1.0000
350.0544	 77.4385
350.5366	 150.0000
351.0187	 150.0000
351.5009	 -1.0000
351.9831	 -1.0000
352.4652	 150.0000
352.9474	 150.0000
353.4296	 150.0000
353.9117	 150.0000
354.3939	 -1.0000
354.8761	 -1.0000
355.3582	 34.3245
355.8404	 64.0940
356.3226	 27.2253
356.8047	 -1.0000
357.2869	 11.9045
357.7691	 29.7544
358.2513	 150.0000
358.7334	 150.0000
359.2156	 150.0000
359.6978	 150.0000
360.1799	 -1.0000
360.6621	 150.0000
361.1443	 28.7144
361.6264	 58.5239
362.1086	 111.9361
362.5908	 150.0000
363.0729	 35.8040
363.5551	 -1.0000
364.0373	 33.7323
364.5194	 83.8335
365.0016	 150.0000
365.4838	 -1.0000
365.9660	 66.2043
366.4481	 4.4551
366.9303	 -1.0000
367.4125	 -1.0000
367.8946	 65.1181
368.3768	 33.3822
368.8590	 150.0000
369.3411	 14.4298
369.8233	 -1.0000
370.3055	 -1.0000
370.7876	 9.9022
371.2698	 -1.0000
371.7520	 150.0000
372.2341	 70.8712
372.7163	 53.6955
373.1985	 10.6695
373.6806	 -1.0000
374.1628	 -1.0000
374.6450	 -1.0000
375.1272	 150.0000
375.6093	 -1.0000
376.0915	 -1.0000
376.5737	 -1.0000
377.0558	 -1.0000
377.5380	 -1.0000
378.0202	 -1.0000
378.5023	 -1.0000
378.9845	 22.9081
379.4667	 150.0000
379.9488	 -1.0000
380.4310	 150.0000
380.9132	 150.0000
381.3953	 150.0000
381.8775	 150.0000
382.3597	 150.0000
382.8419	 68.3638
383.3240	 46.9673
383.8062	 -1.0000
384.2884	 150.0000
384.7705	 28.3910
385.2527	 18.8683
385.7349	 7.5668
386.2170	 -1.0000
386.6992	 -1.0000
387.1814	 95.7909
387.6635	 71.2157
388.1457	 74.9077
388.6279	 57.2508
389.1100	 -1.0000
389.5922	 -1.0000
390.0744	 150.0000
390.5565	 136.2796
391.0387	 24.2076
391.5209	 136.6719
392.0031	 150.0000
392.4852	 63.3419
392.9674	 -1.0000
393.4496	 -1.0000
393.9317	 16.0823
394.4139	 135.5201
394.8961	 150.0000
395.3782	 150.0000
395.8604	 150.0000
396.3426	 98.7726
396.8247	 -1.0000
397.3069	 140.9523
397.7891	 150.0000
398.2712	 150.0000
398.7534	 -1.0000
399.2356	 150.0000
399.7178	 150.0000
400.1999	 150.0000
400.6821	 150.0000
401.1643	 64.3621
401.6464	 -1.0000
402.1286	 7.6120
402.6108	 65.1229
403.0929	 108.5537
403.5751	 128.5989
404.0573	 150.0000
404.5394	 150.0000
405.0216	 -1.0000
405.5038	 -1.0000
405.9859	 -1.0000
406.4681	 73.2384
406.9503	 111.2078
407.4324	 99.0601
407.9146	 82.8803
408.3968	 35.5169
408.8790	 33.1957
409.3611	 90.5824
409.8433	 48.9799
410.3255	 68.7078
410.8076	 133.6497
411.2898	 -1.0000
411.7720	 150.0000
412.2541	 -1.0000
412.7363	 150.0000
413.2185	 -1.0000
413.7006	 150.0000
414.1828	 150.0000
414.6650	 -0.7683
415.1471	 47.1702
415.6293	 150.0000
416.1115	 150.0000
416.5937	 150.0000
417.0758	 96.1123
417.5580	 14.0576
418.0402	 150.0000
418.5223	 150.0000
419.0045	 150.0000
419.4867	 150.0000
419.9688	 39.4726
420.4510	 -1.0000
420.9332	 22.4430
421.4153	 69.6935
421.8975	 63.5271
422.3797	 63.9891
422.8618	 150.0000
423.3440	 -1.0000
423.8262	 124.5326
424.3083	 22.5055
424.7905	 59.2418
425.2727	 150.0000
425.7549	 150.0000
426.2370	 140.7790
426.7192	 102.0885
427.2014	 150.0000
427.6835	 150.0000
428.1657	 150.0000
428.6479	 101.4445
429.1300	 150.0000
429.6122	 -1.0000
430.0944	 8.6743
430.5765	 42.1309
431.0587	 105.7892
431.5409	 92.6945
432.0230	 -1.0000
432.5052	 54.5178
432.9874	 -1.0000
433.4696	 7.4768
433.9517	 79.3956
434.4339	 150.0000
434.9161	 150.0000
435.3982	 150.0000
435.8804	 -1.0000
436.3626	 150.0000
436.8447	 74.7981
437.3269	 119.0658
437.8091	 148.1125
438.2912	 150.0000
438.7734	 150.0000
439.2556	 150.0000
439.7377	 -1.0000
440.2199	 -1.0000
440.7021	 -1.0000
441.1842	 -1.0000
441.6664	 -1.0000
442.1486	 -1.0000
442.6308	 150.0000
443.1129	 150.0000
443.5951	 150.0000
444.0773	 150.0000
444.5594	 -1.0000
445.0416	 20.5360
445.5238	 96.4750
446.0059	 -1.0000
446.4881	 -1.0000
446.9703	 -1.0000
447.4524	 130.8664
447.9346	 129.4471
448.4168	 -1.0000
448.8989	 -1.0000
449.3811	 -1.0000
449.8633	 150.0000
450.3455	 150.0000
450.8276	 -1.0000
451.3098	 -1.0000
451.7920	 150.0000
452.2741	 150.0000
452.7563	 138.1764
453.2385	 150.0000
453.7206	 130.2522
454.2028	 75.1251
454.6850	 87.8590
455.1671	 80.4835
455.6493	 81.2635
456.1315	 79.0734
456.6136	 61.1276
457.0958	 52.3905
457.5780	 64.2381
458.0602	 63.0513
458.5423	 41.4191
459.0245	 16.2345
459.5067	 4.6662
459.9888	 0.3700
460.4710	 -1.0000
460.9532	 -0.9522
461.4353	 7.2219
461.9175	 1.6017
462.3997	 10.1260
462.8818	 21.5714
463.3640	 17.7315
463.8462	 8.5283
464.3283	 6.2049
464.8105	 3.7808
465.2927	 -1.0000
465.7748	 -1.0000
466.2570	 2.2379
466.7392	 2.7117
467.2214	 2.7914
467.7035	 5.8294
468.1857	 5.0422
468.6679	 0.8732
469.1500	 -0.4695
469.6322	 3.7822
470.1144	 6.9458
470.5965	 3.6210
471.0787	 1.3076
471.5609	 1.5102
472.0430	 -1.0000
472.5252	 -1.0000
473.0074	 -1.0000
473.4895	 -1.0000
473.9717	 -1.0000
474.4539	 -1.0000
474.9361	 0.7563
475.4182	 4.5836
475.9004	 4.5194
476.3826	 2.4679
476.8647	 3.1597
477.3469	 3.2934
477.8291	 1.7114
478.3112	 1.2110
478.7934	 2.0738
479.2756	 2.0000
479.7577	 1.7811
480.2399	 2.9613
480.7221	 3.3653
481.2042	 2.4584
481.6864	 0.9349
482.1686	 -0.1421
482.6507	 1.2538
483.1329	 2.3218
483.6151	 1.0224
484.0973	 -0.2653
484.5794	 0.0931
485.0616	 1.2345
485.5438	 1.7835
486.0259	 1.7399
486.5081	 1.4488
486.9903	 1.0724
487.4724	 1.0995
487.9546	 1.4073
488.4368	 1.0559
488.9189	 0.4636
489.4011	 0.8872
489.8833	 1.2775
490.3654	 1.2450
490.8476	 1.1099
491.3298	 1.3982
491.8120	 1.7541
492.2941	 1.2663
492.7763	 1.1831
493.2585	 1.6472
493.7406	 1.5423
494.2228	 1.2787
494.7050	 1.3694
495.1871	 0.9745
495.6693	 0.6820
496.1515	 0.6659
496.6336	 0.8700
497.1158	 1.4883
497.5980	 1.3270
498.0801	 0.7125
498.5623	 0.5521
499.0445	 0.3896
499.5266	 0.3133
500.0088	 0.5824
500.4910	 0.7193
500.9732	 0.3908
501.4553	 0.4512
501.9375	 1.2056
502.4197	 1.1037
502.9018	 0.3034
503.3840	 0.1496
503.8662	 0.4420
504.3483	 0.6386
504.8305	 0.5689
505.3127	 0.2559
505.7948	 -0.0750
506.2770	 -0.0055
506.7592	 0.3424
507.2413	 0.5965
507.7235	 0.6196
508.2057	 0.6386
508.6879	 0.7357
509.1700	 0.7570
509.6522	 0.7242
510.1344	 0.4731
510.6165	 0.0969
511.0987	 0.0865
511.5809	 0.3979
512.0630	 0.5167
512.5452	 0.4094
513.0274	 0.2832
513.5095	 0.2441
513.9917	 0.2581
514.4739	 0.2025
514.9560	 0.3197
515.4382	 0.4945
515.9204	 0.4762
516.4025	 0.3771
516.8847	 0.1931
517.3669	 0.1999
517.8491	 0.4203
518.3312	 0.4092
518.8134	 0.4282
519.2956	 0.5309
519.7777	 0.4612
520.2599	 0.3978
520.7421	 0.3846
521.2242	 0.3907
521.7064	 0.3035
522.1886	 0.1889
522.6707	 0.0852
523.1529	 -0.0009
523.6351	 0.0746
524.1172	 0.2121
524.5994	 0.2649
525.0816	 0.1729
525.5638	 -0.0019
526.0459	 -0.0817
526.5281	 0.0970
527.0103	 0.3142
527.4924	 0.4116
527.9746	 0.4647
528.4568	 0.3205
528.9389	 0.1357
529.4211	 0.2346
529.9033	 0.2583
530.3854	 0.1667
530.8676	 0.2509
531.3498	 0.3266
531.8319	 0.2527
532.3141	 0.1384
532.7963	 0.0597
533.2784	 0.1285
533.7606	 0.1943
534.2428	 0.1644
534.7250	 0.1747
535.2071	 0.1770
535.6893	 0.1363
536.1715	 0.0668
536.6536	 0.0523
537.1358	 0.1072
537.6180	 0.1081
538.1001	 0.1629
538.5823	 0.3432
539.0645	 0.3346
539.5466	 0.1176
540.0288	 0.0372
540.5110	 0.0214
540.9931	 0.0354
541.4753	 0.0515
541.9575	 -0.0596
542.4397	 -0.0963
542.9218	 -0.0101
543.4040	 0.0961
543.8862	 0.1865
544.3683	 0.2399
544.8505	 0.1722
545.3327	 0.0353
545.8148	 0.0904
546.2970	 0.2095
546.7792	 0.2274
547.2613	 0.3091
547.7435	 0.2589
548.2257	 0.0278
548.7078	 0.0010
549.1900	 0.1932
549.6722	 0.3854
550.1543	 0.3229
550.6365	 0.1124
551.1187	 0.1495
551.6009	 0.1608
552.0830	 0.0182
552.5652	 0.0201
553.0474	 0.0683
553.5295	 0.0354
554.0117	 0.0609
554.4939	 0.1962
554.9760	 0.2326
555.4582	 0.1909
555.9404	 0.1784
556.4225	 0.1500
556.9047	 0.1454
557.3869	 0.1589
557.8690	 0.1834
558.3512	 0.1740
558.8334	 0.1279
559.3156	 0.1276
559.7977	 0.1357
560.2799	 0.1113
560.7621	 0.0985
561.2442	 0.0667
561.7264	 0.0103
562.2086	 0.0256
562.6907	 0.0760
563.1729	 0.0827
563.6551	 0.0312
564.1372	 0.0289
564.6194	 0.0681
565.1016	 0.0363
565.5837	 -0.0224
566.0659	 0.0268
566.5481	 0.1130
567.0302	 0.1456
567.5124	 0.2230
567.9946	 0.1898
568.4768	 0.1385
568.9589	 0.2206
569.4411	 0.2524
569.9233	 0.2119
570.4054	 0.1339
570.8876	 0.0544
571.3698	 0.1383
571.8519	 0.1905
572.3341	 0.0652
572.8163	 0.0839
573.2984	 0.2036
573.7806	 0.1686
574.2628	 0.0563
574.7449	 0.0602
575.2271	 0.0853
575.7093	 0.1184
576.1915	 0.2437
576.6736	 0.2291
577.1558	 0.1786
577.6380	 0.1999
578.1201	 0.1686
578.6023	 0.1635
579.0845	 0.1682
579.5666	 0.1038
580.0488	 0.0904
580.5310	 0.1218
581.0131	 0.1121
581.4953	 0.1188
581.9775	 0.1215
582.4596	 0.1208
582.9418	 0.1849
583.4240	 0.2633
583.9061	 0.2704
584.3883	 0.1977
584.8705	 0.1096
585.3527	 0.0794
585.8348	 0.0334
586.3170	 -0.0090
586.7992	 0.0653
587.2813	 0.1544
587.7635	 0.1804
588.2457	 0.0695
588.7278	 -0.0933
589.2100	 -0.0982
589.6922	 -0.0184
590.1743	 0.0444
590.6565	 0.0890
591.1387	 0.0828
591.6208	 0.0685
592.1030	 0.0420
592.5852	 0.0120
593.0674	 0.0787
593.5495	 0.1090
594.0317	 0.0219
594.5139	 -0.0086
594.9960	 0.0635
595.4782	 0.1205
595.9604	 0.1362
596.4425	 0.1203
596.9247	 0.0547
597.4069	 0.0383
597.8890	 0.1157
598.3712	 0.1012
598.8534	 0.0225
599.3355	 0.0224
599.8177	 0.0473
600.2999	 0.0738
600.7820	 0.0550
601.2642	 -0.0059
601.7464	 -0.0161
602.2286	 0.0310
602.7107	 0.0684
603.1929	 0.0687
603.6751	 0.0348
604.1572	 0.0255
604.6394	 0.0152
605.1216	 0.0297
605.6037	 0.1467
606.0859	 0.2041
606.5681	 0.1455
607.0502	 0.0801
607.5324	 0.0641
608.0146	 0.0676
608.4967	 0.0700
608.9789	 0.0709
609.4611	 0.0362
609.9433	 -0.0121
610.4254	 0.0096
610.9076	 0.1019
611.3898	 0.1193
611.8719	 0.0890
612.3541	 0.1168
612.8363	 0.1325
613.3184	 0.1081
613.8006	 0.1174
614.2828	 0.1126
614.7649	 0.0393
615.2471	 -0.0322
615.7293	 -0.0115
616.2114	 0.1007
616.6936	 0.1659
617.1758	 0.1374
617.6579	 0.1243
618.1401	 0.0903
618.6223	 0.0291
619.1045	 0.0197
619.5866	 0.0418
620.0688	 0.0835
620.5510	 0.1240
621.0331	 0.1124
621.5153	 0.0204
621.9975	 -0.0360
622.4796	 0.0276
622.9618	 0.1210
623.4440	 0.1561
623.9261	 0.1579
624.4083	 0.1210
624.8905	 0.0434
625.3726	 0.0109
625.8548	 0.0450
626.3370	 0.0733
626.8192	 0.0460
627.3013	 0.0666
627.7835	 0.1309
628.2657	 0.1027
628.7478	 0.0604
629.2300	 0.0570
629.7122	 0.0524
630.1943	 0.0862
630.6765	 0.1057
631.1587	 0.0537
631.6408	 0.0037
632.1230	 0.0092
632.6052	 0.0043
633.0873	 -0.0013
633.5695	 0.0559
634.0517	 0.0919
634.5339	 0.1136
635.0160	 0.1550
635.4982	 0.1454
635.9804	 0.1271
636.4625	 0.1002
636.9447	 0.0579
637.4269	 0.0965
637.9090	 0.1720
638.3912	 0.1576
638.8734	 0.0889
639.3555	 0.0900
639.8377	 0.1323
640.3199	 0.1109
640.8020	 0.0320
641.2842	 0.0171
641.7664	 0.0646
642.2485	 0.0490
642.7307	 0.0013
643.2129	 0.0174
643.6951	 0.0735
644.1772	 0.1019
644.6594	 0.0762
645.1416	 0.0369
645.6237	 0.0105
646.1059	 -0.0180
646.5881	 -0.0007
647.0702	 0.0638
647.5524	 0.0793
648.0346	 0.0950
648.5167	 0.1310
648.9989	 0.0873
649.4811	 0.0387
649.9632	 0.0203
650.4454	 0.0100
650.9276	 0.0341
651.4098	 0.0355
651.8919	 0.0403
652.3741	 0.0814
652.8563	 0.0653
653.3384	 0.0201
653.8206	 0.0277
654.3028	 0.0644
654.7849	 0.0996
655.2671	 0.1042
655.7493	 0.1006
656.2314	 0.0936
656.7136	 0.0717
657.1958	 0.0793
657.6779	 0.0863
658.1601	 0.0416
658.6423	 -0.0273
659.1244	 -0.0264
659.6066	 0.0512
660.0888	 0.0998
660.5710	 0.1369
661.0531	 0.1624
661.5353	 0.1268
662.0175	 0.0616
662.4996	 -0.0003
662.9818	 0.0192
663.4640	 0.0938
663.9461	 0.1071
664.4283	 0.0575
664.9105	 0.0095
665.3926	 0.0052
665.8748	 0.0459
666.3570	 0.0783
666.8391	 0.1003
667.3213	 0.1123
667.8035	 -0.0925
668.2857	 -0.0622
668.7678	 0.0382
669.2500	 0.0375
669.7322	 0.0396
670.2143	 0.0365
670.6965	 0.0248
671.1787	 0.0567
671.6608	 0.0811
672.1430	 0.0495
672.6252	 0.0501
673.1073	 0.0885
673.5895	 0.0909
674.0717	 0.0711
674.5538	 0.0683
675.0360	 0.0528
675.5182	 0.0236
676.0003	 0.0376
676.4825	 0.0626
676.9647	 0.0717
677.4469	 0.0794
677.9290	 0.0787
678.4112	 0.0614
678.8934	 0.0343
679.3755	 0.0745
679.8577	 0.1063
680.3399	 0.0534
680.8220	 0.0049
681.3042	 -0.0037
681.7864	 0.0168
682.2685	 0.0666
682.7507	 0.0752
683.2329	 0.0473
683.7150	 0.0461
684.1972	 0.0661
684.6794	 0.0593
685.1616	 0.0553
685.6437	 0.0384
686.1259	 0.0230
686.6081	 0.0343
687.0902	 0.0537
687.5724	 0.0360
688.0546	 -0.0023
688.5367	 0.0057
689.0189	 0.0146
689.5011	 0.0031
689.9832	 0.0133
690.4654	 0.0076
690.9476	 -0.0199
691.4297	 -0.0095
691.9119	 0.0308
692.3941	 0.0381
692.8762	 0.0391
693.3584	 0.0395
693.8406	 0.0052
694.3228	 0.0155
694.8049	 0.0553
695.2871	 0.0380
695.7693	 0.0258
696.2514	 0.0412
696.7336	 0.0293
697.2158	 0.0352
697.6979	 0.0802
698.1801	 0.1041
698.6623	 0.0773
699.1444	 0.0559
699.6266	 0.0697
700.1088	 0.0803
700.5909	 0.0467
701.0731	 0.0051
701.5553	 0.0235
702.0375	 0.0491
702.5196	 0.0329
703.0018	 -0.0004
703.4840	 -0.0355
703.9661	 -0.0213
704.4483	 0.0281
704.9305	 0.0296
705.4126	 0.0054
705.8948	 0.0047
706.3770	 0.0334
706.8591	 0.0668
707.3413	 0.0525
707.8235	 0.0168
708.3056	 0.0149
708.7878	 0.0354
709.2700	 0.0394
709.7521	 0.0313
710.2343	 0.0264
710.7165	 0.0152
711.1987	 0.0063
711.6808	 0.0078
712.1630	 0.0290
712.6452	 0.0597
713.1273	 0.0430
713.6095	 0.0030
714.0917	 -0.0050
714.5738	 -0.0025
715.0560	 -0.0050
715.5382	 -0.0015
716.0203	 0.0194
716.5025	 0.0409
716.9847	 0.0187
717.4668	 0.0048
717.9490	 0.0598
718.4312	 0.1025
718.9134	 0.0792
719.3955	 0.0589
719.8777	 0.0791
720.3599	 0.0849
720.8420	 0.0675
721.3242	 0.0729
721.8064	 0.0656
722.2885	 0.0332
722.7707	 -0.0031
723.2529	 -0.0439
723.7350	 -0.0366
724.2172	 0.0064
724.6994	 0.0429
725.1815	 0.0393
725.6637	 -0.0056
726.1459	 -0.0184
726.6280	 0.0020
727.1102	 0.0312
727.5924	 0.0628
728.0746	 0.0946
728.5567	 0.1042
729.0389	 0.0787
729.5211	 0.0560
730.0032	 0.0190
730.4854	 -0.0066
730.9676	 0.0272
731.4497	 0.0554
731.9319	 0.0473
732.4141	 0.0298
732.8962	 0.0155
733.3784	 0.0194
733.8606	 0.0216
734.3427	 0.0241
734.8249	 0.0481
735.3071	 0.0766
735.7893	 0.0705
736.2714	 0.0301
736.7536	 0.0317
737.2358	 0.0494
737.7179	 0.0394
738.2001	 0.0268
738.6823	 0.0110
739.1644	 -0.0200
739.6466	 -0.0334
740.1288	 -0.0108
740.6109	 0.0126
741.0931	 0.0332
741.5753	 0.0375
742.0574	 0.0408
742.5396	 0.0446
743.0218	 0.0036
743.5039	 -0.0227
743.9861	 0.0030
744.4683	 0.0350
744.9505	 0.0639
745.4326	 0.0551
745.9148	 0.0115
746.3970	 0.0127
746.8791	 0.0379
747.3613	 0.0160
747.8435	 -0.0237
748.3256	 -0.0370
748.8078	 -0.0326
749.2900	 -0.0317
749.7721	 -0.0244
750.2543	 -0.0245
750.7365	 -0.0443
751.2186	 -0.0235
751.7008	 0.0139
752.1830	 0.0239
752.6652	 0.0165
753.1473	 0.0124
753.6295	 0.0231
754.1117	 0.0187
754.5938	 0.0608
755.0760	 0.0697
755.5582	 0.0393
756.0403	 0.0585
756.5225	 0.0563
757.0047	 0.0401
757.4868	 0.0349
757.9690	 0.0283
758.4512	 0.0189
758.9333	 0.0292
759.4155	 0.0354
759.8977	 0.0390
760.3798	 0.0443
760.8620	 -0.0026
761.3442	 -0.0375
761.8264	 0.0037
762.3085	 0.0449
762.7907	 0.0419
763.2729	 0.0340
763.7550	 0.0559
764.2372	 0.0453
764.7194	 -0.0110
765.2015	 -0.0300
765.6837	 -0.0032
766.1659	 0.0323
766.6480	 0.0491
767.1302	 0.0272
767.6124	 0.0033
768.0945	 0.0270
768.5767	 0.0445
769.0589	 0.0241
769.5411	 0.0154
770.0232	 0.0393
770.5054	 0.0626
770.9876	 0.0445
771.4697	 0.0291
771.9519	 0.0511
772.4341	 0.0623
772.9162	 0.0402
773.3984	 0.0183
773.8806	 0.0244
774.3627	 0.0465
774.8449	 0.0601
775.3271	 0.0446
775.8092	 0.0196
776.2914	 0.0162
776.7736	 0.0247
777.2557	 0.0394
777.7379	 0.0583
778.2201	 0.0784
778.7023	 0.0780
779.1844	 0.0477
779.6666	 0.0082
780.1488	 -0.0108
780.6309	 -0.0105
781.1131	 -0.0150
781.5953	 -0.0117
782.0774	 0.0011
782.5596	 0.0153
783.0418	 0.0239
783.5239	 0.0346
784.0061	 0.0554
784.4883	 0.0573
784.9704	 0.0379
785.4526	 0.0426
785.9348	 0.0480
786.4170	 0.0187
786.8991	 0.0159
787.3813	 0.0479
787.8635	 0.0519
788.3456	 0.0357
788.8278	 0.0291
789.3100	 0.0176
789.7921	 -0.0074
790.2743	 -0.0139
790.7565	 0.0312
791.2386	 0.0747
791.7208	 0.0590
792.2030	 0.0284
792.6851	 0.0278
793.1673	 0.0190
793.6495	 0.0045
794.1316	 0.0168
794.6138	 0.0257
795.0960	 0.0216
795.5782	 0.0166
796.0603	 0.0369
796.5425	 0.0433
797.0247	 0.0215
797.5068	 0.0271
797.9890	 0.0240
798.4712	 -0.0051
798.9533	 -0.0149
799.4355	 0.0073
799.9177	 0.0066
800.3998	 -0.0213
800.8820	 -0.0201
801.3642	 0.0010
801.8463	 0.0225
802.3285	 0.0432
802.8107	 0.0599
803.2929	 0.0553
803.7750	 0.0272
804.2572	 -0.0043
804.7394	 -0.0139
805.2215	 0.0057
805.7037	 0.0066
806.1859	 -0.0006
806.6680	 0.0204
807.1502	 0.0439
807.6324	 0.0334
808.1145	 -0.0050
808.5967	 -0.0238
809.0789	 -0.0023
809.5610	 0.0279
810.0432	 0.0403
810.5254	 0.0435
811.0076	 0.0496
811.4897	 0.0406
811.9719	 0.0068
812.4541	 0.0063
812.9362	 0.0177
813.4184	 -0.0007
813.9006	 0.0122
814.3827	 0.0390
814.8649	 0.0256
815.3471	 -0.0120
815.8292	 -0.0259
816.3114	 0.0060
816.7936	 0.0303
817.2757	 0.0330
817.7579	 0.0432
818.2401	 0.0630
818.7222	 0.0767
819.2044	 0.0507
819.6866	 0.0420
820.1688	 0.0666
820.6509	 0.0514
821.1331	 0.0348
821.6153	 0.0206
822.0974	 0.0063
822.5796	 0.0204
823.0618	 0.0212
823.5439	 0.0355
824.0261	 0.0680
824.5083	 0.0671
824.9904	 0.0503
825.4726	 0.0436
825.9548	 0.0416
826.4369	 0.0246
826.9191	 0.0089
827.4013	 0.0139
827.8835	 0.0181
828.3656	 0.0079
828.8478	 -0.0043
829.3300	 -0.0057
829.8121	 0.0139
830.2943	 0.0532
830.7765	 0.0571
831.2586	 0.0152
831.7408	 0.0046
832.2230	 0.0239
832.7051	 0.0369
833.1873	 0.0389
833.6695	 0.0251
834.1516	 0.0026
834.6338	 -0.0099
835.1160	 0.0193
835.5981	 0.0488
836.0803	 0.0309
836.5625	 0.0055
837.0447	 -0.0062
837.5268	 -0.0100
838.0090	 0.0126
838.4912	 0.0312
838.9733	 0.0224
839.4555	 0.0201
839.9377	 0.0358
840.4198	 0.0547
840.9020	 0.0370
841.3842	 -0.0060
841.8663	 -0.0259
842.3485	 -0.0161
842.8307	 0.0078
843.3128	 0.0280
843.7950	 0.0264
844.2772	 0.0025
844.7594	 -0.0135
845.2415	 -0.0128
845.7237	 -0.0132
846.2059	 0.0003
846.6880	 0.0244
847.1702	 0.0089
847.6524	 -0.0138
848.1345	 0.0098
848.6167	 0.0211
849.0989	 -0.0043
